Sensor Model:   RX-202A-AA-0.05H-0.05B
Serial Number:  UMEN202
Interpolation Method:   Lagrangian
SetPoint Limit: 40.      (Kelvin)
Data Format:    4      (Log Ohms/Kelvin)
Number of Breakpoints:   27

No.   Units      Temperature (K)

  1  3.35090        40.0
  2  3.35099        39.9
  3  3.35371        37.0
  4  3.36173        29.9
  5  3.37024        24.2
  6  3.37908        19.7
  7  3.38859        16.0
  8  3.39902        12.9
  9  3.41109        10.2
 10  3.42526         7.9
 11  3.43707         6.5
 12  3.45316         5.1
 13  3.46765         4.2
 14  3.48526         3.4
 15  3.50338         2.8
 16  3.52384         2.3
 17  3.54600         1.9
 18  3.57719         1.5
 19  3.61104         1.2
 20  3.64191         1.0
 21  3.68455         0.8
 22  3.71332         0.7
 23  3.74912         0.6
 24  3.79647         0.5
 25  3.86291         0.4
 26  4.15130         0.2
 27  4.81870         0.1
